# This is a final TEA output file with calculated abundances (mixing fractions) for all listed species.
# Units: pressure (bar), temperature (K), abundance (unitless).

#SPECIES
H2_ref He_ref CO_g

#TEADATA
#Radius    Pressure   Temp    H2            He            CO            
 72904.952 1.0000e-05 1500.00 8.4999e-01 1.5000e-01 1.0000e-05 
 72873.429 1.1498e-05 1500.00 8.4999e-01 1.5000e-01 1.0000e-05 
 72841.933 1.3219e-05 1500.00 8.4999e-01 1.5000e-01 1.0000e-05 
 72810.464 1.5199e-05 1500.00 8.4999e-01 1.5000e-01 1.0000e-05 
 72779.023 1.7475e-05 1500.00 8.4999e-01 1.5000e-01 1.0000e-05 
 72747.608 2.0092e-05 1500.00 8.4999e-01 1.5000e-01 1.0000e-05 
 72716.221 2.3101e-05 1500.00 8.4999e-01 1.5000e-01 1.0000e-05 
 72684.861 2.6561e-05 1500.00 8.4999e-01 1.5000e-01 1.0000e-05 
 72653.528 3.0539e-05 1500.00 8.4999e-01 1.5000e-01 1.0000e-05 
 72622.221 3.5112e-05 1500.00 8.4999e-01 1.5000e-01 1.0000e-05 
 72590.942 4.0370e-05 1500.00 8.4999e-01 1.5000e-01 1.0000e-05 
 72559.690 4.6416e-05 1500.00 8.4999e-01 1.5000e-01 1.0000e-05 
 72528.464 5.3367e-05 1500.00 8.4999e-01 1.5000e-01 1.0000e-05 
 72497.266 6.1359e-05 1500.00 8.4999e-01 1.5000e-01 1.0000e-05 
 72466.094 7.0548e-05 1500.00 8.4999e-01 1.5000e-01 1.0000e-05 
 72434.949 8.1113e-05 1500.00 8.4999e-01 1.5000e-01 1.0000e-05 
 72403.831 9.3260e-05 1500.00 8.4999e-01 1.5000e-01 1.0000e-05 
 72372.740 1.0723e-04 1500.00 8.4999e-01 1.5000e-01 1.0000e-05 
 72341.675 1.2328e-04 1500.00 8.4999e-01 1.5000e-01 1.0000e-05 
 72310.637 1.4175e-04 1500.00 8.4999e-01 1.5000e-01 1.0000e-05 
 72279.625 1.6298e-04 1500.00 8.4999e-01 1.5000e-01 1.0000e-05 
 72248.640 1.8738e-04 1500.00 8.4999e-01 1.5000e-01 1.0000e-05 
 72217.682 2.1544e-04 1500.00 8.4999e-01 1.5000e-01 1.0000e-05 
 72186.750 2.4771e-04 1500.00 8.4999e-01 1.5000e-01 1.0000e-05 
 72155.845 2.8480e-04 1500.00 8.4999e-01 1.5000e-01 1.0000e-05 
 72124.966 3.2745e-04 1500.00 8.4999e-01 1.5000e-01 1.0000e-05 
 72094.113 3.7649e-04 1500.00 8.4999e-01 1.5000e-01 1.0000e-05 
 72063.287 4.3288e-04 1500.00 8.4999e-01 1.5000e-01 1.0000e-05 
 72032.487 4.9770e-04 1500.00 8.4999e-01 1.5000e-01 1.0000e-05 
 72001.714 5.7224e-04 1500.00 8.4999e-01 1.5000e-01 1.0000e-05 
 71970.967 6.5793e-04 1500.00 8.4999e-01 1.5000e-01 1.0000e-05 
 71940.246 7.5646e-04 1500.00 8.4999e-01 1.5000e-01 1.0000e-05 
 71909.551 8.6975e-04 1500.00 8.4999e-01 1.5000e-01 1.0000e-05 
 71878.882 1.0000e-03 1500.00 8.4999e-01 1.5000e-01 1.0000e-05 
 71848.240 1.1498e-03 1500.00 8.4999e-01 1.5000e-01 1.0000e-05 
 71817.624 1.3219e-03 1500.00 8.4999e-01 1.5000e-01 1.0000e-05 
 71787.033 1.5199e-03 1500.00 8.4999e-01 1.5000e-01 1.0000e-05 
 71756.469 1.7475e-03 1500.00 8.4999e-01 1.5000e-01 1.0000e-05 
 71725.931 2.0092e-03 1500.00 8.4999e-01 1.5000e-01 1.0000e-05 
 71695.419 2.3101e-03 1500.00 8.4999e-01 1.5000e-01 1.0000e-05 
 71664.932 2.6561e-03 1500.00 8.4999e-01 1.5000e-01 1.0000e-05 
 71634.472 3.0539e-03 1500.00 8.4999e-01 1.5000e-01 1.0000e-05 
 71604.038 3.5112e-03 1500.00 8.4999e-01 1.5000e-01 1.0000e-05 
 71573.629 4.0370e-03 1500.00 8.4999e-01 1.5000e-01 1.0000e-05 
 71543.246 4.6416e-03 1500.00 8.4999e-01 1.5000e-01 1.0000e-05 
 71512.889 5.3367e-03 1500.00 8.4999e-01 1.5000e-01 1.0000e-05 
 71482.558 6.1359e-03 1500.00 8.4999e-01 1.5000e-01 1.0000e-05 
 71452.252 7.0548e-03 1500.00 8.4999e-01 1.5000e-01 1.0000e-05 
 71421.972 8.1113e-03 1500.00 8.4999e-01 1.5000e-01 1.0000e-05 
 71391.718 9.3260e-03 1500.00 8.4999e-01 1.5000e-01 1.0000e-05 
 71361.489 1.0723e-02 1500.00 8.4999e-01 1.5000e-01 1.0000e-05 
 71331.286 1.2328e-02 1500.00 8.4999e-01 1.5000e-01 1.0000e-05 
 71301.109 1.4175e-02 1500.00 8.4999e-01 1.5000e-01 1.0000e-05 
 71270.957 1.6298e-02 1500.00 8.4999e-01 1.5000e-01 1.0000e-05 
 71240.830 1.8738e-02 1500.00 8.4999e-01 1.5000e-01 1.0000e-05 
 71210.729 2.1544e-02 1500.00 8.4999e-01 1.5000e-01 1.0000e-05 
 71180.653 2.4771e-02 1500.00 8.4999e-01 1.5000e-01 1.0000e-05 
 71150.603 2.8480e-02 1500.00 8.4999e-01 1.5000e-01 1.0000e-05 
 71120.578 3.2745e-02 1500.00 8.4999e-01 1.5000e-01 1.0000e-05 
 71090.579 3.7649e-02 1500.00 8.4999e-01 1.5000e-01 1.0000e-05 
 71060.604 4.3288e-02 1500.00 8.4999e-01 1.5000e-01 1.0000e-05 
 71030.655 4.9770e-02 1500.00 8.4999e-01 1.5000e-01 1.0000e-05 
 71000.732 5.7224e-02 1500.00 8.4999e-01 1.5000e-01 1.0000e-05 
 70970.833 6.5793e-02 1500.00 8.4999e-01 1.5000e-01 1.0000e-05 
 70940.960 7.5646e-02 1500.00 8.4999e-01 1.5000e-01 1.0000e-05 
 70911.111 8.6975e-02 1500.00 8.4999e-01 1.5000e-01 1.0000e-05 
 70881.288 1.0000e-01 1500.00 8.4999e-01 1.5000e-01 1.0000e-05 
 70851.490 1.1498e-01 1500.00 8.4999e-01 1.5000e-01 1.0000e-05 
 70821.717 1.3219e-01 1500.00 8.4999e-01 1.5000e-01 1.0000e-05 
 70791.969 1.5199e-01 1500.00 8.4999e-01 1.5000e-01 1.0000e-05 
 70762.246 1.7475e-01 1500.00 8.4999e-01 1.5000e-01 1.0000e-05 
 70732.547 2.0092e-01 1500.00 8.4999e-01 1.5000e-01 1.0000e-05 
 70702.874 2.3101e-01 1500.00 8.4999e-01 1.5000e-01 1.0000e-05 
 70673.226 2.6561e-01 1500.00 8.4999e-01 1.5000e-01 1.0000e-05 
 70643.602 3.0539e-01 1500.00 8.4999e-01 1.5000e-01 1.0000e-05 
 70614.004 3.5112e-01 1500.00 8.4999e-01 1.5000e-01 1.0000e-05 
 70584.430 4.0370e-01 1500.00 8.4999e-01 1.5000e-01 1.0000e-05 
 70554.881 4.6416e-01 1500.00 8.4999e-01 1.5000e-01 1.0000e-05 
 70525.356 5.3367e-01 1500.00 8.4999e-01 1.5000e-01 1.0000e-05 
 70495.856 6.1359e-01 1500.00 8.4999e-01 1.5000e-01 1.0000e-05 
 70466.381 7.0548e-01 1500.00 8.4999e-01 1.5000e-01 1.0000e-05 
 70436.931 8.1113e-01 1500.00 8.4999e-01 1.5000e-01 1.0000e-05 
 70407.505 9.3260e-01 1500.00 8.4999e-01 1.5000e-01 1.0000e-05 
 70378.104 1.0723e+00 1500.00 8.4999e-01 1.5000e-01 1.0000e-05 
 70348.727 1.2328e+00 1500.00 8.4999e-01 1.5000e-01 1.0000e-05 
 70319.375 1.4175e+00 1500.00 8.4999e-01 1.5000e-01 1.0000e-05 
 70290.047 1.6298e+00 1500.00 8.4999e-01 1.5000e-01 1.0000e-05 
 70260.744 1.8738e+00 1500.00 8.4999e-01 1.5000e-01 1.0000e-05 
 70231.465 2.1544e+00 1500.00 8.4999e-01 1.5000e-01 1.0000e-05 
 70202.210 2.4771e+00 1500.00 8.4999e-01 1.5000e-01 1.0000e-05 
 70172.980 2.8480e+00 1500.00 8.4999e-01 1.5000e-01 1.0000e-05 
 70143.774 3.2745e+00 1500.00 8.4999e-01 1.5000e-01 1.0000e-05 
 70114.593 3.7649e+00 1500.00 8.4999e-01 1.5000e-01 1.0000e-05 
 70085.436 4.3288e+00 1500.00 8.4999e-01 1.5000e-01 1.0000e-05 
 70056.303 4.9770e+00 1500.00 8.4999e-01 1.5000e-01 1.0000e-05 
 70027.194 5.7224e+00 1500.00 8.4999e-01 1.5000e-01 1.0000e-05 
 69998.109 6.5793e+00 1500.00 8.4999e-01 1.5000e-01 1.0000e-05 
 69969.049 7.5646e+00 1500.00 8.4999e-01 1.5000e-01 1.0000e-05 
 69940.012 8.6975e+00 1500.00 8.4999e-01 1.5000e-01 1.0000e-05 
 69911.000 1.0000e+01 1500.00 8.4999e-01 1.5000e-01 1.0000e-05 
